# # t[ps]  d[nm]
0.000	0.612
0.100	0.628
0.200	0.622
0.300	0.642
0.400	0.626
0.500	0.633
0.600	0.646
0.700	0.665
0.800	0.640
0.900	0.635
1.000	0.639
1.100	0.639
1.200	0.659
1.300	0.656
1.400	0.649
1.500	0.614
1.600	0.622
1.700	0.625
1.800	0.638
1.900	0.634
2.000	0.654
2.100	0.667
2.200	0.669
2.300	0.659
2.400	0.648
2.500	0.679
2.600	0.711
2.700	0.672
2.800	0.662
2.900	0.631
3.000	0.612
3.100	0.661
3.200	0.656
3.300	0.651
3.400	0.677
3.500	0.665
3.600	0.646
3.700	0.657
3.800	0.686
3.900	0.689
4.000	0.664
4.100	0.631
4.200	0.636
4.300	0.650
4.400	0.642
4.500	0.630
4.600	0.638
4.700	0.680
4.800	0.689
4.900	0.668
5.000	0.655
5.100	0.669
5.200	0.682
5.300	0.692
5.400	0.682
5.500	0.631
5.600	0.625
5.700	0.655
5.800	0.674
5.900	0.680
6.000	0.647
6.100	0.633
6.200	0.665
6.300	0.694
6.400	0.680
6.500	0.647
6.600	0.648
6.700	0.682
6.800	0.696
6.900	0.683
7.000	0.673
7.100	0.651
7.200	0.671
7.300	0.674
7.400	0.666
7.500	0.639
7.600	0.663
7.700	0.658
7.800	0.638
7.900	0.661
8.000	0.666
8.100	0.649
8.200	0.662
8.300	0.683
8.400	0.694
8.500	0.692
8.600	0.646
8.700	0.645
8.800	0.697
8.900	0.717
9.000	0.711
9.100	0.678
9.200	0.647
9.300	0.637
9.400	0.663
9.500	0.690
9.600	0.656
9.700	0.638
9.800	0.637
9.900	0.640
10.000	0.631
10.100	0.632
10.200	0.647
10.300	0.646
10.400	0.640
10.500	0.642
10.600	0.665
10.700	0.638
10.800	0.631
10.900	0.653
11.000	0.666
11.100	0.669
11.200	0.662
11.300	0.651
11.400	0.651
11.500	0.640
11.600	0.639
11.700	0.663
11.800	0.656
11.900	0.653
12.000	0.653
12.100	0.653
12.200	0.652
12.300	0.670
12.400	0.669
12.500	0.650
12.600	0.627
12.700	0.648
12.800	0.656
12.900	0.653
13.000	0.653
13.100	0.650
13.200	0.676
13.300	0.663
13.400	0.664
13.500	0.671
13.600	0.661
13.700	0.661
13.800	0.635
13.900	0.633
14.000	0.617
14.100	0.635
14.200	0.655
14.300	0.673
14.400	0.673
14.500	0.628
14.600	0.642
14.700	0.674
14.800	0.651
14.900	0.652
15.000	0.676
15.100	0.664
15.200	0.642
15.300	0.665
15.400	0.676
15.500	0.651
15.600	0.645
15.700	0.674
15.800	0.668
15.900	0.662
16.000	0.651
16.100	0.643
16.200	0.631
16.300	0.668
16.400	0.646
16.500	0.629
16.600	0.650
16.700	0.682
16.800	0.680
16.900	0.651
17.000	0.657
17.100	0.646
17.200	0.624
17.300	0.631
17.400	0.675
17.500	0.689
17.600	0.679
17.700	0.655
17.800	0.630
17.900	0.647
18.000	0.668
18.100	0.675
18.200	0.668
18.300	0.687
18.400	0.682
18.500	0.693
18.600	0.666
18.700	0.653
18.800	0.653
18.900	0.667
19.000	0.663
19.100	0.673
19.200	0.676
19.300	0.656
19.400	0.638
19.500	0.658
19.600	0.689
19.700	0.710
19.800	0.696
19.900	0.667
20.000	0.645
20.100	0.651
20.200	0.646
20.300	0.639
20.400	0.645
20.500	0.643
20.600	0.655
20.700	0.671
20.800	0.680
20.900	0.686
21.000	0.672
21.100	0.634
21.200	0.632
21.300	0.664
21.400	0.665
21.500	0.656
21.600	0.666
21.700	0.663
21.800	0.683
21.900	0.693
22.000	0.659
22.100	0.634
22.200	0.653
22.300	0.694
22.400	0.720
22.500	0.690
22.600	0.658
22.700	0.677
22.800	0.698
22.900	0.671
23.000	0.672
23.100	0.695
23.200	0.686
23.300	0.657
23.400	0.648
23.500	0.677
23.600	0.680
23.700	0.673
23.800	0.681
23.900	0.648
24.000	0.657
24.100	0.680
24.200	0.660
24.300	0.639
24.400	0.663
24.500	0.705
24.600	0.697
24.700	0.661
24.800	0.626
24.900	0.642
25.000	0.711
25.100	0.749
25.200	0.736
25.300	0.680
25.400	0.621
25.500	0.633
25.600	0.665
25.700	0.642
25.800	0.618
25.900	0.643
26.000	0.660
26.100	0.664
26.200	0.667
26.300	0.665
26.400	0.661
26.500	0.656
26.600	0.663
26.700	0.667
26.800	0.683
26.900	0.688
27.000	0.694
27.100	0.689
27.200	0.677
27.300	0.670
27.400	0.665
27.500	0.676
27.600	0.660
27.700	0.661
27.800	0.647
27.900	0.670
28.000	0.686
28.100	0.646
28.200	0.648
28.300	0.665
28.400	0.675
28.500	0.679
28.600	0.649
28.700	0.639
28.800	0.646
28.900	0.646
29.000	0.663
29.100	0.677
29.200	0.649
29.300	0.647
29.400	0.669
29.500	0.679
29.600	0.624
29.700	0.627
29.800	0.676
29.900	0.663
30.000	0.663
30.100	0.702
30.200	0.711
30.300	0.709
30.400	0.702
30.500	0.698
30.600	0.701
30.700	0.667
30.800	0.638
30.900	0.685
31.000	0.710
31.100	0.706
31.200	0.704
31.300	0.676
31.400	0.696
31.500	0.682
31.600	0.697
31.700	0.720
31.800	0.714
31.900	0.721
32.000	0.707
32.100	0.675
32.200	0.660
32.300	0.684
32.400	0.648
32.500	0.640
32.600	0.669
32.700	0.675
32.800	0.682
32.900	0.677
33.000	0.669
33.100	0.665
33.200	0.657
33.300	0.649
33.400	0.672
33.500	0.671
33.600	0.628
33.700	0.631
33.800	0.674
33.900	0.671
34.000	0.668
34.100	0.667
34.200	0.682
34.300	0.673
34.400	0.660
34.500	0.628
34.600	0.635
34.700	0.649
34.800	0.646
34.900	0.612
35.000	0.605
35.100	0.646
35.200	0.654
35.300	0.642
35.400	0.643
35.500	0.688
35.600	0.717
35.700	0.712
35.800	0.692
35.900	0.698
36.000	0.684
36.100	0.684
36.200	0.703
36.300	0.690
36.400	0.683
36.500	0.670
36.600	0.647
36.700	0.640
36.800	0.669
36.900	0.704
37.000	0.713
37.100	0.707
37.200	0.719
37.300	0.693
37.400	0.674
37.500	0.675
37.600	0.675
37.700	0.670
37.800	0.664
37.900	0.698
38.000	0.719
38.100	0.685
38.200	0.673
38.300	0.685
38.400	0.691
38.500	0.673
38.600	0.668
38.700	0.653
38.800	0.653
38.900	0.673
39.000	0.660
39.100	0.676
39.200	0.668
39.300	0.656
39.400	0.661
39.500	0.655
39.600	0.651
39.700	0.672
39.800	0.659
39.900	0.660
40.000	0.681
40.100	0.647
40.200	0.655
40.300	0.688
40.400	0.707
40.500	0.700
40.600	0.693
40.700	0.689
40.800	0.670
40.900	0.682
41.000	0.678
41.100	0.664
41.200	0.670
41.300	0.729
41.400	0.726
41.500	0.714
41.600	0.734
41.700	0.746
41.800	0.728
41.900	0.731
42.000	0.712
42.100	0.668
42.200	0.685
42.300	0.678
42.400	0.671
42.500	0.669
42.600	0.685
42.700	0.715
42.800	0.713
42.900	0.709
43.000	0.690
43.100	0.709
43.200	0.700
43.300	0.703
43.400	0.695
43.500	0.695
43.600	0.696
43.700	0.662
43.800	0.665
43.900	0.648
44.000	0.651
44.100	0.653
44.200	0.655
44.300	0.662
44.400	0.679
44.500	0.723
44.600	0.682
44.700	0.654
44.800	0.696
44.900	0.709
45.000	0.694
45.100	0.659
45.200	0.697
45.300	0.704
45.400	0.672
45.500	0.660
45.600	0.644
45.700	0.651
45.800	0.685
45.900	0.686
46.000	0.704
46.100	0.711
46.200	0.705
46.300	0.676
46.400	0.665
46.500	0.668
46.600	0.702
46.700	0.714
46.800	0.707
46.900	0.709
47.000	0.707
47.100	0.677
47.200	0.661
47.300	0.696
47.400	0.698
47.500	0.704
47.600	0.720
47.700	0.736
47.800	0.721
47.900	0.682
48.000	0.660
48.100	0.669
48.200	0.689
48.300	0.667
48.400	0.676
48.500	0.691
48.600	0.672
48.700	0.661
48.800	0.684
48.900	0.682
49.000	0.699
49.100	0.742
49.200	0.757
49.300	0.726
49.400	0.714
49.500	0.726
49.600	0.751
49.700	0.748
49.800	0.749
49.900	0.732
50.000	0.707
50.100	0.684
50.200	0.683
50.300	0.714
50.400	0.732
50.500	0.729
50.600	0.706
50.700	0.679
50.800	0.701
50.900	0.748
51.000	0.761
51.100	0.735
51.200	0.713
51.300	0.721
51.400	0.725
51.500	0.713
51.600	0.706
51.700	0.703
51.800	0.700
51.900	0.716
52.000	0.736
52.100	0.773
52.200	0.796
52.300	0.740
52.400	0.689
52.500	0.681
52.600	0.713
52.700	0.796
52.800	0.805
52.900	0.783
53.000	0.740
53.100	0.714
53.200	0.714
53.300	0.728
53.400	0.722
53.500	0.738
53.600	0.783
53.700	0.801
53.800	0.766
53.900	0.733
54.000	0.719
54.100	0.740
54.200	0.732
54.300	0.738
54.400	0.748
54.500	0.727
54.600	0.668
54.700	0.676
54.800	0.707
54.900	0.736
55.000	0.763
55.100	0.750
55.200	0.733
55.300	0.734
55.400	0.720
55.500	0.717
55.600	0.718
55.700	0.729
55.800	0.751
55.900	0.764
56.000	0.735
56.100	0.701
56.200	0.700
56.300	0.708
56.400	0.726
56.500	0.751
56.600	0.763
56.700	0.745
56.800	0.731
56.900	0.733
57.000	0.727
57.100	0.724
57.200	0.758
57.300	0.791
57.400	0.805
57.500	0.798
57.600	0.744
57.700	0.737
57.800	0.724
57.900	0.734
58.000	0.785
58.100	0.779
58.200	0.740
58.300	0.723
58.400	0.715
58.500	0.741
58.600	0.744
58.700	0.732
58.800	0.740
58.900	0.724
59.000	0.731
59.100	0.764
59.200	0.741
59.300	0.716
59.400	0.710
59.500	0.730
59.600	0.743
59.700	0.705
59.800	0.672
59.900	0.655
60.000	0.685
60.100	0.729
60.200	0.730
60.300	0.739
60.400	0.779
60.500	0.795
60.600	0.791
60.700	0.763
60.800	0.748
60.900	0.727
61.000	0.698
61.100	0.690
61.200	0.698
61.300	0.728
61.400	0.743
61.500	0.780
61.600	0.786
61.700	0.780
61.800	0.770
61.900	0.771
62.000	0.752
62.100	0.714
62.200	0.698
62.300	0.724
62.400	0.719
62.500	0.721
62.600	0.741
62.700	0.742
62.800	0.724
62.900	0.704
63.000	0.696
63.100	0.741
63.200	0.796
63.300	0.860
63.400	0.860
63.500	0.837
63.600	0.846
63.700	0.848
63.800	0.838
63.900	0.808
64.000	0.799
64.100	0.798
64.200	0.801
64.300	0.805
64.400	0.797
64.500	0.786
64.600	0.795
64.700	0.803
64.800	0.805
64.900	0.820
65.000	0.842
65.100	0.837
65.200	0.824
65.300	0.810
65.400	0.810
65.500	0.779
65.600	0.754
65.700	0.725
65.800	0.710
65.900	0.748
66.000	0.801
66.100	0.810
66.200	0.778
66.300	0.749
66.400	0.756
66.500	0.785
66.600	0.787
66.700	0.770
66.800	0.781
66.900	0.805
67.000	0.794
67.100	0.777
67.200	0.796
67.300	0.791
67.400	0.764
67.500	0.782
67.600	0.801
67.700	0.797
67.800	0.786
67.900	0.760
68.000	0.721
68.100	0.700
68.200	0.683
68.300	0.685
68.400	0.670
68.500	0.736
68.600	0.802
68.700	0.827
68.800	0.836
68.900	0.817
69.000	0.789
69.100	0.774
69.200	0.753
69.300	0.731
69.400	0.723
69.500	0.722
69.600	0.695
69.700	0.722
69.800	0.753
69.900	0.739
70.000	0.723
70.100	0.739
70.200	0.744
70.300	0.744
70.400	0.743
70.500	0.717
70.600	0.717
70.700	0.740
70.800	0.709
70.900	0.720
71.000	0.766
71.100	0.786
71.200	0.779
71.300	0.776
71.400	0.788
71.500	0.784
71.600	0.807
71.700	0.828
71.800	0.806
71.900	0.767
72.000	0.735
72.100	0.729
72.200	0.720
72.300	0.727
72.400	0.735
72.500	0.719
72.600	0.695
72.700	0.708
72.800	0.730
72.900	0.714
73.000	0.720
73.100	0.721
73.200	0.709
73.300	0.705
73.400	0.698
73.500	0.706
73.600	0.723
73.700	0.750
73.800	0.791
73.900	0.775
74.000	0.766
74.100	0.755
74.200	0.744
74.300	0.754
74.400	0.795
74.500	0.815
74.600	0.804
74.700	0.830
74.800	0.856
74.900	0.853
75.000	0.819
75.100	0.786
75.200	0.778
75.300	0.773
75.400	0.790
75.500	0.814
75.600	0.790
75.700	0.782
75.800	0.787
75.900	0.797
76.000	0.777
76.100	0.741
76.200	0.730
76.300	0.734
76.400	0.719
76.500	0.735
76.600	0.740
76.700	0.749
76.800	0.793
76.900	0.778
77.000	0.753
77.100	0.793
77.200	0.800
77.300	0.798
77.400	0.789
77.500	0.820
77.600	0.828
77.700	0.835
77.800	0.826
77.900	0.822
78.000	0.797
78.100	0.781
78.200	0.778
78.300	0.772
78.400	0.759
78.500	0.794
78.600	0.829
78.700	0.818
78.800	0.823
78.900	0.820
79.000	0.828
79.100	0.834
79.200	0.802
79.300	0.767
79.400	0.782
79.500	0.785
79.600	0.788
79.700	0.769
79.800	0.751
79.900	0.753
80.000	0.775
80.100	0.787
80.200	0.801
80.300	0.790
80.400	0.778
80.500	0.775
80.600	0.770
80.700	0.768
80.800	0.758
80.900	0.787
81.000	0.803
81.100	0.800
81.200	0.792
81.300	0.775
81.400	0.773
81.500	0.754
81.600	0.739
81.700	0.750
81.800	0.786
81.900	0.814
82.000	0.821
82.100	0.808
82.200	0.781
82.300	0.753
82.400	0.780
82.500	0.806
82.600	0.818
82.700	0.822
82.800	0.828
82.900	0.791
83.000	0.749
83.100	0.726
83.200	0.753
83.300	0.781
83.400	0.759
83.500	0.762
83.600	0.790
83.700	0.774
83.800	0.767
83.900	0.761
84.000	0.770
84.100	0.787
84.200	0.804
84.300	0.794
84.400	0.781
84.500	0.775
84.600	0.792
84.700	0.806
84.800	0.823
84.900	0.804
85.000	0.796
85.100	0.815
85.200	0.842
85.300	0.839
85.400	0.862
85.500	0.830
85.600	0.805
85.700	0.812
85.800	0.813
85.900	0.800
86.000	0.801
86.100	0.795
86.200	0.825
86.300	0.823
86.400	0.808
86.500	0.821
86.600	0.827
86.700	0.837
86.800	0.807
86.900	0.784
87.000	0.784
87.100	0.817
87.200	0.829
87.300	0.813
87.400	0.783
87.500	0.771
87.600	0.782
87.700	0.790
87.800	0.796
87.900	0.795
88.000	0.800
88.100	0.815
88.200	0.839
88.300	0.829
88.400	0.827
88.500	0.826
88.600	0.816
88.700	0.826
88.800	0.838
88.900	0.831
89.000	0.856
89.100	0.889
89.200	0.923
89.300	0.914
89.400	0.903
89.500	0.922
89.600	0.913
89.700	0.954
89.800	0.944
89.900	0.945
90.000	0.930
90.100	0.891
90.200	0.903
90.300	0.939
90.400	0.940
90.500	0.921
90.600	0.921
90.700	0.934
90.800	0.944
90.900	0.961
91.000	0.952
91.100	0.937
91.200	0.935
91.300	0.948
91.400	0.924
91.500	0.958
91.600	0.980
91.700	0.980
91.800	0.979
91.900	1.010
92.000	1.017
92.100	0.987
92.200	0.996
92.300	1.017
92.400	1.023
92.500	1.001
92.600	0.986
92.700	0.998
92.800	1.001
92.900	1.010
93.000	1.003
93.100	0.974
93.200	0.968
93.300	0.985
93.400	0.992
93.500	1.002
93.600	1.032
93.700	1.032
93.800	1.041
93.900	1.026
94.000	1.010
94.100	1.016
94.200	1.019
94.300	1.041
94.400	1.081
94.500	1.083
94.600	1.067
94.700	1.040
94.800	1.031
94.900	1.047
95.000	1.061
95.100	1.045
95.200	1.018
95.300	1.011
95.400	1.025
95.500	1.013
95.600	0.977
95.700	0.991
95.800	1.026
95.900	1.032
96.000	1.041
96.100	1.066
96.200	1.116
96.300	1.109
96.400	1.058
96.500	1.017
96.600	0.990
96.700	1.031
96.800	1.084
96.900	1.130
97.000	1.122
97.100	1.069
97.200	1.036
97.300	1.064
97.400	1.085
97.500	1.070
97.600	1.055
97.700	1.040
97.800	1.039
97.900	1.058
98.000	1.068
98.100	1.036
98.200	1.027
98.300	1.015
98.400	1.011
98.500	0.990
98.600	0.965
98.700	0.991
98.800	1.007
98.900	1.042
99.000	1.076
99.100	1.055
99.200	1.085
99.300	1.107
99.400	1.126
99.500	1.150
99.600	1.132
99.700	1.105
99.800	1.085
99.900	1.098
100.000	1.078
100.100	1.083
100.200	1.085
100.300	1.086
100.400	1.098
100.500	1.092
100.600	1.066
100.700	1.029
100.800	1.062
100.900	1.093
101.000	1.131
101.100	1.149
101.200	1.151
101.300	1.157
101.400	1.158
101.500	1.137
101.600	1.110
101.700	1.117
101.800	1.126
101.900	1.148
102.000	1.119
102.100	1.085
102.200	1.072
102.300	1.091
102.400	1.088
102.500	1.080
102.600	1.098
102.700	1.095
102.800	1.097
102.900	1.116
103.000	1.118
103.100	1.088
103.200	1.110
103.300	1.142
103.400	1.154
103.500	1.154
103.600	1.145
103.700	1.119
103.800	1.054
103.900	1.033
104.000	1.073
104.100	1.116
104.200	1.146
104.300	1.146
104.400	1.110
104.500	1.106
104.600	1.087
104.700	1.063
104.800	1.104
104.900	1.145
105.000	1.164
105.100	1.155
105.200	1.138
105.300	1.135
105.400	1.149
105.500	1.180
105.600	1.208
105.700	1.234
105.800	1.239
105.900	1.222
106.000	1.217
106.100	1.231
106.200	1.278
106.300	1.263
106.400	1.215
106.500	1.158
106.600	1.140
106.700	1.147
106.800	1.164
106.900	1.181
107.000	1.201
107.100	1.223
107.200	1.257
107.300	1.263
107.400	1.224
107.500	1.181
107.600	1.161
107.700	1.131
107.800	1.124
107.900	1.105
108.000	1.090
108.100	1.089
108.200	1.132
108.300	1.168
108.400	1.166
108.500	1.164
108.600	1.143
108.700	1.086
108.800	1.069
108.900	1.085
109.000	1.130
109.100	1.164
109.200	1.216
109.300	1.213
109.400	1.212
109.500	1.210
109.600	1.185
109.700	1.149
109.800	1.132
109.900	1.142
110.000	1.178
110.100	1.181
110.200	1.154
110.300	1.146
110.400	1.142
110.500	1.104
110.600	1.087
110.700	1.131
110.800	1.170
110.900	1.163
111.000	1.152
111.100	1.157
111.200	1.158
111.300	1.157
111.400	1.168
111.500	1.183
111.600	1.174
111.700	1.164
111.800	1.143
111.900	1.172
112.000	1.199
112.100	1.203
112.200	1.154
112.300	1.157
112.400	1.144
112.500	1.171
112.600	1.206
112.700	1.212
112.800	1.209
112.900	1.187
113.000	1.167
113.100	1.178
113.200	1.200
113.300	1.165
113.400	1.145
113.500	1.162
113.600	1.172
113.700	1.163
113.800	1.160
113.900	1.166
114.000	1.142
114.100	1.131
114.200	1.127
114.300	1.132
114.400	1.130
114.500	1.162
114.600	1.168
114.700	1.161
114.800	1.139
114.900	1.158
115.000	1.142
115.100	1.121
115.200	1.120
115.300	1.105
115.400	1.123
115.500	1.132
115.600	1.118
115.700	1.089
115.800	1.086
115.900	1.079
116.000	1.058
116.100	1.067
116.200	1.060
116.300	1.030
116.400	1.027
116.500	1.069
116.600	1.130
116.700	1.135
116.800	1.134
116.900	1.117
117.000	1.117
117.100	1.108
117.200	1.128
117.300	1.124
117.400	1.118
117.500	1.125
117.600	1.135
117.700	1.139
117.800	1.135
117.900	1.103
118.000	1.087
118.100	1.020
118.200	0.998
118.300	0.997
118.400	1.007
118.500	1.061
118.600	1.085
118.700	1.087
118.800	1.108
118.900	1.110
119.000	1.118
119.100	1.121
119.200	1.116
119.300	1.119
119.400	1.158
119.500	1.161
119.600	1.157
119.700	1.198
119.800	1.216
119.900	1.226
120.000	1.242
120.100	1.251
120.200	1.264
120.300	1.247
120.400	1.238
120.500	1.248
120.600	1.234
120.700	1.232
120.800	1.234
120.900	1.207
121.000	1.198
121.100	1.214
121.200	1.227
121.300	1.241
121.400	1.268
121.500	1.265
121.600	1.250
121.700	1.252
121.800	1.297
121.900	1.271
122.000	1.222
122.100	1.251
122.200	1.263
122.300	1.270
122.400	1.251
122.500	1.247
122.600	1.252
122.700	1.261
122.800	1.292
122.900	1.295
123.000	1.247
123.100	1.213
123.200	1.217
123.300	1.254
123.400	1.243
123.500	1.241
123.600	1.274
123.700	1.295
123.800	1.306
123.900	1.303
124.000	1.292
124.100	1.289
124.200	1.273
124.300	1.298
124.400	1.308
124.500	1.307
124.600	1.303
124.700	1.278
124.800	1.249
124.900	1.196
125.000	1.175
125.100	1.191
125.200	1.200
125.300	1.214
125.400	1.216
125.500	1.209
125.600	1.227
125.700	1.252
125.800	1.246
125.900	1.202
126.000	1.171
126.100	1.176
126.200	1.220
126.300	1.240
126.400	1.256
126.500	1.256
126.600	1.270
126.700	1.286
126.800	1.310
126.900	1.341
127.000	1.331
127.100	1.321
127.200	1.280
127.300	1.235
127.400	1.210
127.500	1.191
127.600	1.186
127.700	1.192
127.800	1.198
127.900	1.240
128.000	1.261
128.100	1.268
128.200	1.268
128.300	1.248
128.400	1.241
128.500	1.251
128.600	1.262
128.700	1.256
128.800	1.278
128.900	1.260
129.000	1.244
129.100	1.222
129.200	1.206
129.300	1.196
129.400	1.227
129.500	1.249
129.600	1.281
129.700	1.277
129.800	1.296
129.900	1.310
130.000	1.290
130.100	1.267
130.200	1.244
130.300	1.254
130.400	1.262
130.500	1.256
130.600	1.252
130.700	1.249
130.800	1.247
130.900	1.238
131.000	1.250
131.100	1.278
131.200	1.304
131.300	1.338
131.400	1.342
131.500	1.342
131.600	1.355
131.700	1.353
131.800	1.318
131.900	1.306
132.000	1.290
132.100	1.250
132.200	1.244
132.300	1.259
132.400	1.279
132.500	1.268
132.600	1.252
132.700	1.279
132.800	1.274
132.900	1.302
133.000	1.326
133.100	1.343
133.200	1.374
133.300	1.391
133.400	1.394
133.500	1.386
133.600	1.370
133.700	1.328
133.800	1.290
133.900	1.279
134.000	1.289
134.100	1.309
134.200	1.281
134.300	1.256
134.400	1.242
134.500	1.242
134.600	1.266
134.700	1.264
134.800	1.276
134.900	1.276
135.000	1.282
135.100	1.291
135.200	1.304
135.300	1.296
135.400	1.288
135.500	1.303
135.600	1.336
135.700	1.365
135.800	1.380
135.900	1.374
136.000	1.363
136.100	1.350
136.200	1.336
136.300	1.324
136.400	1.314
136.500	1.310
136.600	1.326
136.700	1.345
136.800	1.358
136.900	1.377
137.000	1.381
137.100	1.379
137.200	1.398
137.300	1.422
137.400	1.424
137.500	1.422
137.600	1.394
137.700	1.396
137.800	1.356
137.900	1.318
138.000	1.306
138.100	1.336
138.200	1.374
138.300	1.361
138.400	1.333
138.500	1.289
138.600	1.281
138.700	1.286
138.800	1.269
138.900	1.300
139.000	1.340
139.100	1.372
139.200	1.362
139.300	1.329
139.400	1.304
139.500	1.290
139.600	1.284
139.700	1.256
139.800	1.264
139.900	1.310
140.000	1.375
140.100	1.381
140.200	1.382
140.300	1.362
140.400	1.353
140.500	1.311
140.600	1.276
140.700	1.264
140.800	1.268
140.900	1.257
141.000	1.284
141.100	1.273
141.200	1.255
141.300	1.243
141.400	1.245
141.500	1.259
141.600	1.289
141.700	1.324
141.800	1.349
141.900	1.353
142.000	1.351
142.100	1.345
142.200	1.323
142.300	1.328
142.400	1.346
142.500	1.367
142.600	1.383
142.700	1.385
142.800	1.375
142.900	1.356
143.000	1.353
143.100	1.374
143.200	1.350
143.300	1.327
143.400	1.326
143.500	1.344
143.600	1.334
143.700	1.347
143.800	1.399
143.900	1.388
144.000	1.393
144.100	1.397
144.200	1.385
144.300	1.348
144.400	1.306
144.500	1.268
144.600	1.268
144.700	1.284
144.800	1.331
144.900	1.333
145.000	1.335
145.100	1.311
145.200	1.312
145.300	1.306
145.400	1.290
145.500	1.294
145.600	1.318
145.700	1.348
145.800	1.350
145.900	1.385
146.000	1.381
146.100	1.337
146.200	1.311
146.300	1.296
146.400	1.301
146.500	1.315
146.600	1.313
146.700	1.307
146.800	1.336
146.900	1.315
147.000	1.273
147.100	1.283
147.200	1.329
147.300	1.336
147.400	1.316
147.500	1.347
147.600	1.366
147.700	1.372
147.800	1.392
147.900	1.431
148.000	1.441
148.100	1.436
148.200	1.435
148.300	1.437
148.400	1.423
148.500	1.408
148.600	1.411
148.700	1.432
148.800	1.421
148.900	1.418
149.000	1.420
149.100	1.442
149.200	1.468
149.300	1.456
149.400	1.415
149.500	1.364
149.600	1.348
149.700	1.332
149.800	1.333
149.900	1.365
150.000	1.353
150.100	1.359
150.200	1.406
150.300	1.418
150.400	1.419
150.500	1.403
150.600	1.381
150.700	1.366
150.800	1.341
150.900	1.303
151.000	1.298
151.100	1.307
151.200	1.304
151.300	1.272
151.400	1.280
151.500	1.303
151.600	1.336
151.700	1.368
151.800	1.393
151.900	1.438
152.000	1.441
152.100	1.426
152.200	1.395
152.300	1.405
152.400	1.397
152.500	1.418
152.600	1.452
152.700	1.452
152.800	1.408
152.900	1.401
153.000	1.421
153.100	1.433
153.200	1.419
153.300	1.416
153.400	1.431
153.500	1.431
153.600	1.419
153.700	1.418
153.800	1.417
153.900	1.410
154.000	1.421
154.100	1.404
154.200	1.379
154.300	1.399
154.400	1.448
154.500	1.478
154.600	1.499
154.700	1.515
154.800	1.493
154.900	1.452
155.000	1.410
155.100	1.404
155.200	1.415
155.300	1.439
155.400	1.464
155.500	1.465
155.600	1.445
155.700	1.438
155.800	1.441
155.900	1.442
156.000	1.453
156.100	1.458
156.200	1.475
156.300	1.486
156.400	1.489
156.500	1.535
156.600	1.529
156.700	1.498
156.800	1.517
156.900	1.520
157.000	1.503
157.100	1.448
157.200	1.432
157.300	1.462
157.400	1.491
157.500	1.514
157.600	1.481
157.700	1.496
157.800	1.502
157.900	1.503
158.000	1.467
158.100	1.465
158.200	1.491
158.300	1.513
158.400	1.524
158.500	1.519
158.600	1.520
158.700	1.506
158.800	1.484
158.900	1.441
159.000	1.440
159.100	1.462
159.200	1.491
159.300	1.547
159.400	1.560
159.500	1.485
159.600	1.455
159.700	1.480
159.800	1.482
159.900	1.513
160.000	1.511
160.100	1.507
160.200	1.509
160.300	1.498
160.400	1.473
160.500	1.473
160.600	1.478
160.700	1.514
160.800	1.536
160.900	1.498
161.000	1.481
161.100	1.483
161.200	1.515
161.300	1.497
161.400	1.500
161.500	1.500
161.600	1.495
161.700	1.491
161.800	1.493
161.900	1.518
162.000	1.493
162.100	1.513
162.200	1.542
162.300	1.523
162.400	1.521
162.500	1.539
162.600	1.579
162.700	1.579
162.800	1.553
162.900	1.536
163.000	1.502
163.100	1.496
163.200	1.514
163.300	1.536
163.400	1.512
163.500	1.529
163.600	1.534
163.700	1.499
163.800	1.459
163.900	1.476
164.000	1.457
164.100	1.475
164.200	1.500
164.300	1.531
164.400	1.555
164.500	1.551
164.600	1.555
164.700	1.548
164.800	1.532
164.900	1.491
165.000	1.476
165.100	1.524
165.200	1.560
165.300	1.554
165.400	1.565
165.500	1.566
165.600	1.565
165.700	1.579
165.800	1.593
165.900	1.585
166.000	1.585
166.100	1.545
166.200	1.516
166.300	1.530
166.400	1.553
166.500	1.554
166.600	1.555
166.700	1.569
166.800	1.569
166.900	1.574
167.000	1.569
167.100	1.575
167.200	1.590
167.300	1.573
167.400	1.540
167.500	1.537
167.600	1.564
167.700	1.577
167.800	1.524
167.900	1.487
168.000	1.461
168.100	1.439
168.200	1.424
168.300	1.434
168.400	1.463
168.500	1.500
168.600	1.512
168.700	1.524
168.800	1.532
168.900	1.511
169.000	1.543
169.100	1.576
169.200	1.567
169.300	1.530
169.400	1.520
169.500	1.521
169.600	1.519
169.700	1.520
169.800	1.502
169.900	1.500
170.000	1.521
170.100	1.531
170.200	1.541
170.300	1.548
170.400	1.544
170.500	1.554
170.600	1.586
170.700	1.602
170.800	1.592
170.900	1.598
171.000	1.586
171.100	1.598
171.200	1.602
171.300	1.614
171.400	1.626
171.500	1.614
171.600	1.579
171.700	1.565
171.800	1.551
171.900	1.569
172.000	1.566
172.100	1.545
172.200	1.573
172.300	1.573
172.400	1.564
172.500	1.584
172.600	1.558
172.700	1.560
172.800	1.556
172.900	1.509
173.000	1.508
173.100	1.513
173.200	1.509
173.300	1.504
173.400	1.498
173.500	1.471
173.600	1.461
173.700	1.535
173.800	1.552
173.900	1.551
174.000	1.537
174.100	1.524
174.200	1.545
174.300	1.584
174.400	1.610
174.500	1.594
174.600	1.566
174.700	1.554
174.800	1.549
174.900	1.561
175.000	1.567
175.100	1.537
175.200	1.521
175.300	1.535
175.400	1.569
175.500	1.578
175.600	1.543
175.700	1.565
175.800	1.569
175.900	1.575
176.000	1.593
176.100	1.612
176.200	1.609
176.300	1.596
176.400	1.579
176.500	1.579
176.600	1.590
176.700	1.557
176.800	1.571
176.900	1.579
177.000	1.606
177.100	1.608
177.200	1.649
177.300	1.642
177.400	1.635
177.500	1.621
177.600	1.593
177.700	1.585
177.800	1.607
177.900	1.604
178.000	1.597
178.100	1.621
178.200	1.641
178.300	1.644
178.400	1.650
178.500	1.632
178.600	1.601
178.700	1.588
178.800	1.587
178.900	1.594
179.000	1.636
179.100	1.639
179.200	1.613
179.300	1.598
179.400	1.605
179.500	1.600
179.600	1.560
179.700	1.540
179.800	1.563
179.900	1.572
180.000	1.585
180.100	1.607
180.200	1.630
180.300	1.617
180.400	1.579
180.500	1.576
180.600	1.568
180.700	1.566
180.800	1.532
180.900	1.524
181.000	1.545
181.100	1.540
181.200	1.548
181.300	1.526
181.400	1.534
181.500	1.559
181.600	1.547
181.700	1.542
181.800	1.552
181.900	1.557
182.000	1.542
182.100	1.549
182.200	1.574
182.300	1.587
182.400	1.597
182.500	1.587
182.600	1.585
182.700	1.636
182.800	1.621
182.900	1.610
183.000	1.609
183.100	1.583
183.200	1.551
183.300	1.524
183.400	1.550
183.500	1.589
183.600	1.609
183.700	1.546
183.800	1.520
183.900	1.550
184.000	1.591
184.100	1.637
184.200	1.653
184.300	1.626
184.400	1.624
184.500	1.636
184.600	1.618
184.700	1.607
184.800	1.594
184.900	1.625
185.000	1.639
185.100	1.658
185.200	1.650
185.300	1.631
185.400	1.637
185.500	1.652
185.600	1.662
185.700	1.691
185.800	1.708
185.900	1.686
186.000	1.636
186.100	1.644
186.200	1.660
186.300	1.673
186.400	1.670
186.500	1.608
186.600	1.613
186.700	1.639
186.800	1.640
186.900	1.641
187.000	1.633
187.100	1.650
187.200	1.648
187.300	1.638
187.400	1.649
187.500	1.640
187.600	1.641
187.700	1.653
187.800	1.686
187.900	1.669
188.000	1.646
188.100	1.616
188.200	1.623
188.300	1.647
188.400	1.691
188.500	1.717
188.600	1.673
188.700	1.637
188.800	1.600
188.900	1.613
189.000	1.642
189.100	1.645
189.200	1.658
189.300	1.643
189.400	1.611
189.500	1.620
189.600	1.620
189.700	1.588
189.800	1.607
189.900	1.607
190.000	1.628
190.100	1.642
190.200	1.672
190.300	1.683
190.400	1.701
190.500	1.712
190.600	1.706
190.700	1.700
190.800	1.687
190.900	1.704
191.000	1.726
191.100	1.711
191.200	1.678
191.300	1.657
191.400	1.670
191.500	1.674
191.600	1.663
191.700	1.680
191.800	1.672
191.900	1.668
192.000	1.663
192.100	1.689
192.200	1.707
192.300	1.718
192.400	1.720
192.500	1.682
192.600	1.655
192.700	1.655
192.800	1.671
192.900	1.671
193.000	1.665
193.100	1.690
193.200	1.702
193.300	1.702
193.400	1.719
193.500	1.738
193.600	1.731
193.700	1.697
193.800	1.689
193.900	1.645
194.000	1.633
194.100	1.627
194.200	1.645
194.300	1.685
194.400	1.654
194.500	1.624
194.600	1.639
194.700	1.663
194.800	1.644
194.900	1.616
195.000	1.602
195.100	1.616
195.200	1.639
195.300	1.651
195.400	1.639
195.500	1.653
195.600	1.656
195.700	1.653
195.800	1.656
195.900	1.687
196.000	1.707
196.100	1.707
196.200	1.683
196.300	1.660
196.400	1.643
196.500	1.617
196.600	1.624
196.700	1.667
196.800	1.676
196.900	1.697
197.000	1.695
197.100	1.658
197.200	1.641
197.300	1.646
197.400	1.677
197.500	1.669
197.600	1.681
197.700	1.693
197.800	1.710
197.900	1.699
198.000	1.695
198.100	1.687
198.200	1.706
198.300	1.730
198.400	1.706
198.500	1.720
198.600	1.742
198.700	1.755
198.800	1.720
198.900	1.683
199.000	1.657
199.100	1.637
199.200	1.611
199.300	1.620
199.400	1.638
199.500	1.671
199.600	1.686
199.700	1.646
199.800	1.618
199.900	1.602
200.000	1.617
200.100	1.631
200.200	1.638
200.300	1.630
200.400	1.653
200.500	1.680
200.600	1.698
200.700	1.701
200.800	1.712
200.900	1.720
201.000	1.699
201.100	1.724
201.200	1.723
201.300	1.696
201.400	1.697
201.500	1.694
201.600	1.705
201.700	1.735
201.800	1.717
201.900	1.745
202.000	1.756
202.100	1.741
202.200	1.681
202.300	1.653
202.400	1.663
202.500	1.677
202.600	1.692
202.700	1.676
202.800	1.664
202.900	1.687
203.000	1.737
203.100	1.717
203.200	1.710
203.300	1.737
203.400	1.716
203.500	1.689
203.600	1.700
203.700	1.701
203.800	1.734
203.900	1.756
204.000	1.749
204.100	1.752
204.200	1.724
204.300	1.705
204.400	1.717
204.500	1.699
204.600	1.702
204.700	1.738
204.800	1.721
204.900	1.718
205.000	1.736
205.100	1.744
205.200	1.770
205.300	1.792
205.400	1.788
205.500	1.769
205.600	1.738
205.700	1.731
205.800	1.732
205.900	1.752
206.000	1.787
206.100	1.793
206.200	1.802
206.300	1.790
206.400	1.751
206.500	1.756
206.600	1.739
206.700	1.702
206.800	1.694
206.900	1.718
207.000	1.727
207.100	1.733
207.200	1.746
207.300	1.715
207.400	1.735
207.500	1.751
207.600	1.733
207.700	1.743
207.800	1.728
207.900	1.720
208.000	1.711
208.100	1.723
208.200	1.750
208.300	1.715
208.400	1.709
208.500	1.715
208.600	1.748
208.700	1.728
208.800	1.736
208.900	1.723
209.000	1.719
209.100	1.739
209.200	1.736
209.300	1.730
209.400	1.704
209.500	1.691
209.600	1.689
209.700	1.697
209.800	1.738
209.900	1.721
210.000	1.734
210.100	1.713
210.200	1.711
210.300	1.736
210.400	1.771
210.500	1.767
210.600	1.780
210.700	1.779
210.800	1.778
210.900	1.759
211.000	1.737
211.100	1.736
211.200	1.720
211.300	1.686
211.400	1.671
211.500	1.693
211.600	1.735
211.700	1.726
211.800	1.724
211.900	1.735
212.000	1.741
212.100	1.728
212.200	1.735
212.300	1.738
212.400	1.746
212.500	1.751
212.600	1.767
212.700	1.776
212.800	1.749
212.900	1.736
213.000	1.716
213.100	1.741
213.200	1.781
213.300	1.756
213.400	1.713
213.500	1.712
213.600	1.718
213.700	1.740
213.800	1.718
213.900	1.722
214.000	1.733
214.100	1.735
214.200	1.734
214.300	1.721
214.400	1.712
214.500	1.732
214.600	1.743
214.700	1.742
214.800	1.741
214.900	1.764
215.000	1.754
215.100	1.754
215.200	1.764
215.300	1.765
215.400	1.781
215.500	1.794
215.600	1.773
215.700	1.731
215.800	1.731
215.900	1.754
216.000	1.787
216.100	1.819
216.200	1.800
216.300	1.748
216.400	1.690
216.500	1.677
216.600	1.724
216.700	1.761
216.800	1.747
216.900	1.728
217.000	1.722
217.100	1.723
217.200	1.719
217.300	1.707
217.400	1.714
217.500	1.695
217.600	1.689
217.700	1.695
217.800	1.703
217.900	1.705
218.000	1.726
218.100	1.742
218.200	1.735
218.300	1.735
218.400	1.735
218.500	1.720
218.600	1.737
218.700	1.758
218.800	1.763
218.900	1.787
219.000	1.784
219.100	1.788
219.200	1.832
219.300	1.782
219.400	1.770
219.500	1.760
219.600	1.789
219.700	1.817
219.800	1.816
219.900	1.842
220.000	1.862
220.100	1.839
220.200	1.850
220.300	1.874
220.400	1.877
220.500	1.850
220.600	1.849
220.700	1.867
220.800	1.870
220.900	1.836
221.000	1.811
221.100	1.812
221.200	1.828
221.300	1.828
221.400	1.775
221.500	1.796
221.600	1.846
221.700	1.867
221.800	1.850
221.900	1.811
222.000	1.785
222.100	1.802
222.200	1.793
222.300	1.778
222.400	1.792
222.500	1.759
222.600	1.741
222.700	1.777
222.800	1.818
222.900	1.822
223.000	1.821
223.100	1.790
223.200	1.838
223.300	1.856
223.400	1.891
223.500	1.900
223.600	1.877
223.700	1.887
223.800	1.890
223.900	1.910
224.000	1.905
224.100	1.889
224.200	1.856
224.300	1.869
224.400	1.870
224.500	1.850
224.600	1.822
224.700	1.834
224.800	1.858
224.900	1.861
225.000	1.862
225.100	1.847
225.200	1.887
225.300	1.894
225.400	1.890
225.500	1.903
225.600	1.877
225.700	1.863
225.800	1.884
225.900	1.920
226.000	1.895
226.100	1.918
226.200	1.918
226.300	1.918
226.400	1.910
226.500	1.877
226.600	1.891
226.700	1.874
226.800	1.864
226.900	1.838
227.000	1.847
227.100	1.852
227.200	1.834
227.300	1.838
227.400	1.850
227.500	1.864
227.600	1.853
227.700	1.853
227.800	1.883
227.900	1.849
228.000	1.855
228.100	1.846
228.200	1.855
228.300	1.862
228.400	1.869
228.500	1.861
228.600	1.852
228.700	1.843
228.800	1.837
228.900	1.816
229.000	1.836
229.100	1.833
229.200	1.835
229.300	1.816
229.400	1.807
229.500	1.785
229.600	1.798
229.700	1.822
229.800	1.839
229.900	1.848
230.000	1.844
230.100	1.823
230.200	1.821
230.300	1.815
230.400	1.795
230.500	1.788
230.600	1.786
230.700	1.806
230.800	1.805
230.900	1.812
231.000	1.825
231.100	1.840
231.200	1.815
231.300	1.792
231.400	1.795
231.500	1.776
231.600	1.779
231.700	1.788
231.800	1.807
231.900	1.792
232.000	1.810
232.100	1.822
232.200	1.812
232.300	1.835
232.400	1.868
232.500	1.880
232.600	1.827
232.700	1.832
232.800	1.858
232.900	1.840
233.000	1.815
233.100	1.817
233.200	1.812
233.300	1.799
233.400	1.778
233.500	1.786
233.600	1.787
233.700	1.830
233.800	1.813
233.900	1.773
234.000	1.798
234.100	1.809
234.200	1.809
234.300	1.799
234.400	1.820
234.500	1.800
234.600	1.811
234.700	1.836
234.800	1.848
234.900	1.828
235.000	1.818
235.100	1.856
235.200	1.882
235.300	1.857
235.400	1.856
235.500	1.840
235.600	1.819
235.700	1.796
235.800	1.822
235.900	1.846
236.000	1.834
236.100	1.821
236.200	1.801
236.300	1.797
236.400	1.816
236.500	1.831
236.600	1.837
236.700	1.835
236.800	1.834
236.900	1.822
237.000	1.814
237.100	1.810
237.200	1.842
237.300	1.825
237.400	1.780
237.500	1.768
237.600	1.796
237.700	1.794
237.800	1.792
237.900	1.781
238.000	1.787
238.100	1.757
238.200	1.765
238.300	1.810
238.400	1.843
238.500	1.829
238.600	1.811
238.700	1.819
238.800	1.812
238.900	1.801
239.000	1.843
239.100	1.859
239.200	1.846
239.300	1.812
239.400	1.809
239.500	1.818
239.600	1.818
239.700	1.806
239.800	1.795
239.900	1.821
240.000	1.815
240.100	1.789
240.200	1.772
240.300	1.780
240.400	1.817
240.500	1.809
240.600	1.808
240.700	1.795
240.800	1.809
240.900	1.817
241.000	1.807
241.100	1.823
241.200	1.820
241.300	1.827
241.400	1.837
241.500	1.833
241.600	1.821
241.700	1.837
241.800	1.836
241.900	1.826
242.000	1.794
242.100	1.783
242.200	1.806
242.300	1.793
242.400	1.786
242.500	1.804
242.600	1.837
242.700	1.831
242.800	1.815
242.900	1.865
243.000	1.856
243.100	1.868
243.200	1.860
243.300	1.824
243.400	1.795
243.500	1.805
243.600	1.817
243.700	1.832
243.800	1.826
243.900	1.832
244.000	1.829
244.100	1.815
244.200	1.824
244.300	1.851
244.400	1.842
244.500	1.868
244.600	1.875
244.700	1.877
244.800	1.862
244.900	1.853
245.000	1.822
245.100	1.805
245.200	1.800
245.300	1.820
245.400	1.784
245.500	1.807
245.600	1.825
245.700	1.818
245.800	1.838
245.900	1.826
246.000	1.840
246.100	1.874
246.200	1.883
246.300	1.877
246.400	1.879
246.500	1.890
246.600	1.908
246.700	1.888
246.800	1.903
246.900	1.866
247.000	1.876
247.100	1.864
247.200	1.851
247.300	1.875
247.400	1.878
247.500	1.865
247.600	1.899
247.700	1.897
247.800	1.908
247.900	1.905
248.000	1.926
248.100	1.916
248.200	1.911
248.300	1.908
248.400	1.884
248.500	1.860
248.600	1.869
248.700	1.848
248.800	1.844
248.900	1.837
249.000	1.847
249.100	1.898
249.200	1.898
249.300	1.896
249.400	1.909
249.500	1.918
249.600	1.931
249.700	1.917
249.800	1.921
249.900	1.931
250.000	1.947
250.100	1.967
250.200	1.979
250.300	1.992
250.400	1.990
250.500	1.980
250.600	1.971
250.700	1.965
250.800	1.949
250.900	1.971
251.000	1.990
251.100	1.971
251.200	1.969
251.300	1.973
251.400	1.942
251.500	1.913
251.600	1.927
251.700	1.935
251.800	1.922
251.900	1.927
252.000	1.954
252.100	1.970
252.200	1.973
252.300	1.968
252.400	1.996
252.500	2.010
252.600	1.982
252.700	2.018
252.800	2.004
252.900	1.998
253.000	2.006
253.100	2.033
253.200	2.036
253.300	2.000
253.400	2.001
253.500	2.015
253.600	2.009
253.700	2.005
253.800	2.025
253.900	2.017
254.000	2.010
254.100	1.970
254.200	1.967
254.300	2.003
254.400	2.009
254.500	2.013
254.600	2.018
254.700	2.002
254.800	1.974
254.900	1.960
255.000	1.941
255.100	1.961
255.200	1.952
255.300	1.901
255.400	1.882
255.500	1.903
255.600	1.932
255.700	1.946
255.800	1.958
255.900	1.930
256.000	1.917
256.100	1.893
256.200	1.915
256.300	1.919
256.400	1.896
256.500	1.902
256.600	1.912
256.700	1.876
256.800	1.877
256.900	1.896
257.000	1.888
257.100	1.883
257.200	1.900
257.300	1.926
257.400	1.926
257.500	1.912
257.600	1.922
257.700	1.914
257.800	1.895
257.900	1.928
258.000	1.916
258.100	1.914
258.200	1.942
258.300	1.971
258.400	1.958
258.500	1.918
258.600	1.886
258.700	1.893
258.800	1.923
258.900	1.918
259.000	1.907
259.100	1.917
259.200	1.910
259.300	1.911
259.400	1.914
259.500	1.916
259.600	1.915
259.700	1.923
259.800	1.918
259.900	1.937
260.000	1.920
260.100	1.950
260.200	1.959
260.300	1.977
260.400	2.006
260.500	2.030
260.600	1.998
260.700	1.967
260.800	1.973
260.900	1.970
261.000	1.966
261.100	1.925
261.200	1.902
261.300	1.899
261.400	1.903
261.500	1.923
261.600	1.919
261.700	1.928
261.800	1.951
261.900	1.937
262.000	1.917
262.100	1.897
262.200	1.919
262.300	1.932
262.400	1.964
262.500	1.949
262.600	1.943
262.700	1.919
262.800	1.910
262.900	1.920
263.000	1.896
263.100	1.898
263.200	1.917
263.300	1.911
263.400	1.910
263.500	1.915
263.600	1.914
263.700	1.921
263.800	1.939
263.900	1.932
264.000	1.928
264.100	1.931
264.200	1.943
264.300	1.947
264.400	1.973
264.500	1.962
264.600	1.918
264.700	1.944
264.800	1.941
264.900	1.952
265.000	1.952
265.100	1.951
265.200	1.984
265.300	1.997
265.400	2.005
265.500	2.002
265.600	1.990
265.700	2.001
265.800	1.984
265.900	1.986
266.000	1.972
266.100	1.979
266.200	1.982
266.300	1.971
266.400	1.988
266.500	1.999
266.600	2.004
266.700	2.025
266.800	2.033
266.900	2.031
267.000	2.018
267.100	1.955
267.200	1.966
267.300	1.969
267.400	1.966
267.500	1.925
267.600	1.908
267.700	1.925
267.800	1.932
267.900	1.923
268.000	1.938
268.100	1.971
268.200	1.955
268.300	1.985
268.400	1.984
268.500	1.957
268.600	1.977
268.700	1.991
268.800	1.987
268.900	1.990
269.000	1.993
269.100	2.031
269.200	2.056
269.300	2.038
269.400	2.041
269.500	2.040
269.600	2.020
269.700	1.987
269.800	1.991
269.900	1.990
270.000	1.989
270.100	1.999
270.200	1.997
270.300	2.002
270.400	2.022
270.500	2.002
270.600	2.011
270.700	2.000
270.800	1.998
270.900	2.005
271.000	2.017
271.100	2.060
271.200	2.086
271.300	2.071
271.400	2.044
271.500	2.029
271.600	1.980
271.700	1.976
271.800	2.004
271.900	2.023
272.000	2.071
272.100	2.073
272.200	2.057
272.300	2.056
272.400	2.059
272.500	2.030
272.600	2.020
272.700	2.009
272.800	1.991
272.900	2.004
273.000	2.003
273.100	1.992
273.200	2.032
273.300	2.032
273.400	2.034
273.500	2.033
273.600	2.041
273.700	2.045
273.800	2.054
273.900	2.045
274.000	2.043
274.100	2.044
274.200	2.046
274.300	2.020
274.400	2.037
274.500	2.042
274.600	2.040
274.700	2.052
274.800	2.043
274.900	2.044
275.000	2.075
275.100	2.109
275.200	2.088
275.300	2.077
275.400	2.095
275.500	2.094
275.600	2.102
275.700	2.106
275.800	2.103
275.900	2.093
276.000	2.087
276.100	2.097
276.200	2.113
276.300	2.067
276.400	2.072
276.500	2.090
276.600	2.062
276.700	2.031
276.800	2.026
276.900	2.069
277.000	2.099
277.100	2.137
277.200	2.133
277.300	2.103
277.400	2.090
277.500	2.088
277.600	2.085
277.700	2.083
277.800	2.072
277.900	2.064
278.000	2.082
278.100	2.096
278.200	2.125
278.300	2.137
278.400	2.166
278.500	2.140
278.600	2.119
278.700	2.127
278.800	2.123
278.900	2.104
279.000	2.103
279.100	2.122
279.200	2.097
279.300	2.076
279.400	2.082
279.500	2.101
279.600	2.109
279.700	2.106
279.800	2.120
279.900	2.093
280.000	2.063
280.100	2.071
280.200	2.084
280.300	2.082
280.400	2.096
280.500	2.121
280.600	2.119
280.700	2.114
280.800	2.114
280.900	2.138
281.000	2.170
281.100	2.159
281.200	2.137
281.300	2.111
281.400	2.111
281.500	2.089
281.600	2.070
281.700	2.062
281.800	2.072
281.900	2.048
282.000	2.053
282.100	2.060
282.200	2.058
282.300	2.099
282.400	2.109
282.500	2.106
282.600	2.113
282.700	2.124
282.800	2.113
282.900	2.080
283.000	2.077
283.100	2.071
283.200	2.061
283.300	2.060
283.400	2.041
283.500	2.060
283.600	2.087
283.700	2.072
283.800	2.076
283.900	2.122
284.000	2.137
284.100	2.119
284.200	2.102
284.300	2.113
284.400	2.100
284.500	2.104
284.600	2.105
284.700	2.117
284.800	2.107
284.900	2.068
285.000	2.048
285.100	2.083
285.200	2.123
285.300	2.116
285.400	2.118
285.500	2.118
285.600	2.113
285.700	2.106
285.800	2.125
285.900	2.124
286.000	2.128
286.100	2.106
286.200	2.128
286.300	2.123
286.400	2.095
286.500	2.137
286.600	2.164
286.700	2.144
286.800	2.115
286.900	2.105
287.000	2.084
287.100	2.080
287.200	2.094
287.300	2.108
287.400	2.097
287.500	2.082
287.600	2.066
287.700	2.078
287.800	2.076
287.900	2.066
288.000	2.061
288.100	2.088
288.200	2.103
288.300	2.093
288.400	2.092
288.500	2.077
288.600	2.049
288.700	2.065
288.800	2.114
288.900	2.111
289.000	2.066
289.100	2.058
289.200	2.060
289.300	2.059
289.400	2.049
289.500	2.037
289.600	2.097
289.700	2.138
289.800	2.125
289.900	2.093
290.000	2.103
290.100	2.081
290.200	2.075
290.300	2.052
290.400	2.033
290.500	2.052
290.600	2.069
290.700	2.037
290.800	2.019
290.900	2.060
291.000	2.104
291.100	2.091
291.200	2.086
291.300	2.098
291.400	2.091
291.500	2.059
291.600	2.065
291.700	2.088
291.800	2.077
291.900	2.078
292.000	2.101
292.100	2.130
292.200	2.121
292.300	2.127
292.400	2.131
292.500	2.141
292.600	2.159
292.700	2.163
292.800	2.157
292.900	2.101
293.000	2.136
293.100	2.199
293.200	2.176
293.300	2.119
293.400	2.099
293.500	2.077
293.600	2.042
293.700	2.050
293.800	2.078
293.900	2.080
294.000	2.068
294.100	2.051
294.200	2.069
294.300	2.094
294.400	2.103
294.500	2.098
294.600	2.121
294.700	2.112
294.800	2.099
294.900	2.061
295.000	2.072
295.100	2.097
295.200	2.092
295.300	2.098
295.400	2.132
295.500	2.126
295.600	2.117
295.700	2.108
295.800	2.111
295.900	2.123
296.000	2.110
296.100	2.098
296.200	2.106
296.300	2.105
296.400	2.115
296.500	2.097
296.600	2.131
296.700	2.155
296.800	2.138
296.900	2.135
297.000	2.157
297.100	2.194
297.200	2.194
297.300	2.155
297.400	2.150
297.500	2.149
297.600	2.138
297.700	2.144
297.800	2.144
297.900	2.131
298.000	2.134
298.100	2.166
298.200	2.168
298.300	2.129
298.400	2.124
298.500	2.131
298.600	2.126
298.700	2.113
298.800	2.097
298.900	2.090
299.000	2.126
299.100	2.152
299.200	2.154
299.300	2.120
299.400	2.130
299.500	2.160
299.600	2.143
299.700	2.120
299.800	2.135
299.900	2.148
300.000	2.132
300.100	2.114
300.200	2.149
300.300	2.182
300.400	2.164
300.500	2.117
300.600	2.074
300.700	2.049
300.800	2.078
300.900	2.116
301.000	2.116
301.100	2.114
301.200	2.134
301.300	2.115
301.400	2.107
301.500	2.126
301.600	2.112
301.700	2.101
301.800	2.119
301.900	2.134
302.000	2.133
302.100	2.153
302.200	2.177
302.300	2.141
302.400	2.115
302.500	2.100
302.600	2.111
302.700	2.122
302.800	2.131
302.900	2.150
303.000	2.165
303.100	2.157
303.200	2.151
303.300	2.128
303.400	2.131
303.500	2.157
303.600	2.163
303.700	2.167
303.800	2.163
303.900	2.149
304.000	2.183
304.100	2.191
304.200	2.159
304.300	2.177
304.400	2.182
304.500	2.205
304.600	2.208
304.700	2.211
304.800	2.225
304.900	2.213
305.000	2.184
305.100	2.211
305.200	2.222
305.300	2.205
305.400	2.195
305.500	2.215
305.600	2.208
305.700	2.207
305.800	2.204
305.900	2.235
306.000	2.240
306.100	2.234
306.200	2.248
306.300	2.252
306.400	2.280
306.500	2.268
306.600	2.254
306.700	2.261
306.800	2.237
306.900	2.230
307.000	2.224
307.100	2.218
307.200	2.227
307.300	2.231
307.400	2.226
307.500	2.258
307.600	2.303
307.700	2.343
307.800	2.316
307.900	2.283
308.000	2.255
308.100	2.227
308.200	2.202
308.300	2.231
308.400	2.242
308.500	2.212
308.600	2.199
308.700	2.192
308.800	2.235
308.900	2.219
309.000	2.178
309.100	2.185
309.200	2.199
309.300	2.223
309.400	2.216
309.500	2.204
309.600	2.207
309.700	2.208
309.800	2.233
309.900	2.241
310.000	2.203
310.100	2.205
310.200	2.234
310.300	2.216
310.400	2.230
310.500	2.220
310.600	2.230
310.700	2.244
310.800	2.233
310.900	2.214
311.000	2.205
311.100	2.234
311.200	2.270
311.300	2.272
311.400	2.246
311.500	2.240
311.600	2.271
311.700	2.284
311.800	2.273
311.900	2.249
312.000	2.217
312.100	2.203
312.200	2.219
312.300	2.237
312.400	2.225
312.500	2.224
312.600	2.226
312.700	2.205
312.800	2.225
312.900	2.228
313.000	2.262
313.100	2.296
313.200	2.338
313.300	2.367
313.400	2.377
313.500	2.396
313.600	2.401
313.700	2.402
313.800	2.403
313.900	2.381
314.000	2.384
314.100	2.352
314.200	2.351
314.300	2.381
314.400	2.377
314.500	2.343
314.600	2.335
314.700	2.374
314.800	2.371
314.900	2.353
315.000	2.374
315.100	2.385
315.200	2.385
315.300	2.368
315.400	2.337
315.500	2.314
315.600	2.311
315.700	2.345
315.800	2.359
315.900	2.355
316.000	2.348
316.100	2.322
316.200	2.319
316.300	2.353
316.400	2.324
316.500	2.321
316.600	2.342
316.700	2.370
316.800	2.365
316.900	2.320
317.000	2.325
317.100	2.336
317.200	2.326
317.300	2.281
317.400	2.261
317.500	2.292
317.600	2.293
317.700	2.278
317.800	2.287
317.900	2.268
318.000	2.303
318.100	2.341
318.200	2.328
318.300	2.294
318.400	2.283
318.500	2.324
318.600	2.321
318.700	2.312
318.800	2.311
318.900	2.323
319.000	2.352
319.100	2.367
319.200	2.359
319.300	2.339
319.400	2.356
319.500	2.343
319.600	2.325
319.700	2.295
319.800	2.289
319.900	2.319
320.000	2.313
320.100	2.300
320.200	2.290
320.300	2.276
320.400	2.291
320.500	2.303
320.600	2.301
320.700	2.284
320.800	2.273
320.900	2.241
321.000	2.226
321.100	2.220
321.200	2.187
321.300	2.190
321.400	2.211
321.500	2.237
321.600	2.257
321.700	2.264
321.800	2.253
321.900	2.262
322.000	2.261
322.100	2.256
322.200	2.276
322.300	2.276
322.400	2.305
322.500	2.301
322.600	2.276
322.700	2.271
322.800	2.240
322.900	2.223
323.000	2.248
323.100	2.311
323.200	2.358
323.300	2.381
323.400	2.400
323.500	2.414
323.600	2.385
323.700	2.378
323.800	2.395
323.900	2.363
324.000	2.367
324.100	2.408
324.200	2.397
324.300	2.380
324.400	2.358
324.500	2.347
324.600	2.339
324.700	2.365
324.800	2.360
324.900	2.338
325.000	2.357
325.100	2.366
325.200	2.380
325.300	2.384
325.400	2.340
325.500	2.321
325.600	2.348
325.700	2.366
325.800	2.385
325.900	2.377
326.000	2.393
326.100	2.406
326.200	2.399
326.300	2.379
326.400	2.381
326.500	2.344
326.600	2.336
326.700	2.340
326.800	2.333
326.900	2.363
327.000	2.345
327.100	2.344
327.200	2.327
327.300	2.307
327.400	2.341
327.500	2.404
327.600	2.413
327.700	2.434
327.800	2.445
327.900	2.418
328.000	2.426
328.100	2.402
328.200	2.375
328.300	2.407
328.400	2.422
328.500	2.398
328.600	2.365
328.700	2.328
328.800	2.351
328.900	2.391
329.000	2.404
329.100	2.449
329.200	2.473
329.300	2.449
329.400	2.410
329.500	2.409
329.600	2.375
329.700	2.370
329.800	2.379
329.900	2.388
330.000	2.407
330.100	2.393
330.200	2.409
330.300	2.424
330.400	2.428
330.500	2.420
330.600	2.414
330.700	2.394
330.800	2.345
330.900	2.325
331.000	2.344
331.100	2.385
331.200	2.406
331.300	2.417
331.400	2.410
331.500	2.439
331.600	2.441
331.700	2.443
331.800	2.438
331.900	2.438
332.000	2.423
332.100	2.394
332.200	2.407
332.300	2.394
332.400	2.367
332.500	2.355
332.600	2.360
332.700	2.360
332.800	2.349
332.900	2.355
333.000	2.374
333.100	2.374
333.200	2.381
333.300	2.407
333.400	2.411
333.500	2.411
333.600	2.413
333.700	2.403
333.800	2.429
333.900	2.467
334.000	2.466
334.100	2.447
334.200	2.474
334.300	2.484
334.400	2.474
334.500	2.477
334.600	2.455
334.700	2.431
334.800	2.467
334.900	2.454
335.000	2.453
335.100	2.452
335.200	2.435
335.300	2.455
335.400	2.459
335.500	2.467
335.600	2.472
335.700	2.463
335.800	2.483
335.900	2.487
336.000	2.494
336.100	2.491
336.200	2.477
336.300	2.477
336.400	2.477
336.500	2.497
336.600	2.520
336.700	2.518
336.800	2.493
336.900	2.494
337.000	2.463
337.100	2.416
337.200	2.424
337.300	2.399
337.400	2.356
337.500	2.336
337.600	2.313
337.700	2.334
337.800	2.346
337.900	2.349
338.000	2.350
338.100	2.366
338.200	2.370
338.300	2.401
338.400	2.404
338.500	2.401
338.600	2.367
338.700	2.359
338.800	2.393
338.900	2.429
339.000	2.467
339.100	2.488
339.200	2.482
339.300	2.451
339.400	2.464
339.500	2.480
339.600	2.494
339.700	2.475
339.800	2.510
339.900	2.477
340.000	2.405
340.100	2.430
340.200	2.418
340.300	2.404
340.400	2.408
340.500	2.451
340.600	2.453
340.700	2.430
340.800	2.442
340.900	2.414
341.000	2.398
341.100	2.405
341.200	2.414
341.300	2.422
341.400	2.409
341.500	2.408
341.600	2.395
341.700	2.370
341.800	2.349
341.900	2.345
342.000	2.364
342.100	2.351
342.200	2.357
342.300	2.373
342.400	2.364
342.500	2.361
342.600	2.399
342.700	2.393
342.800	2.387
342.900	2.396
343.000	2.376
343.100	2.365
343.200	2.380
343.300	2.392
343.400	2.411
343.500	2.414
343.600	2.441
343.700	2.437
343.800	2.433
343.900	2.451
344.000	2.429
344.100	2.436
344.200	2.452
344.300	2.449
344.400	2.447
344.500	2.446
344.600	2.446
344.700	2.385
344.800	2.359
344.900	2.385
345.000	2.430
345.100	2.431
345.200	2.419
345.300	2.430
345.400	2.449
345.500	2.464
345.600	2.474
345.700	2.505
345.800	2.514
345.900	2.462
346.000	2.441
346.100	2.448
346.200	2.475
346.300	2.471
346.400	2.466
346.500	2.438
346.600	2.429
346.700	2.452
346.800	2.483
346.900	2.479
347.000	2.488
347.100	2.459
347.200	2.457
347.300	2.474
347.400	2.489
347.500	2.458
347.600	2.464
347.700	2.495
347.800	2.470
347.900	2.450
348.000	2.433
348.100	2.417
348.200	2.437
348.300	2.444
348.400	2.411
348.500	2.447
348.600	2.465
348.700	2.474
348.800	2.487
348.900	2.501
349.000	2.493
349.100	2.487
349.200	2.455
349.300	2.453
349.400	2.491
349.500	2.487
349.600	2.474
349.700	2.481
349.800	2.528
349.900	2.521
350.000	2.540
350.100	2.555
350.200	2.521
350.300	2.507
350.400	2.480
350.500	2.493
350.600	2.515
350.700	2.510
350.800	2.530
350.900	2.515
351.000	2.500
351.100	2.501
351.200	2.508
351.300	2.498
351.400	2.516
351.500	2.543
351.600	2.542
351.700	2.513
351.800	2.501
351.900	2.529
352.000	2.562
352.100	2.555
352.200	2.549
352.300	2.566
352.400	2.558
352.500	2.522
352.600	2.541
352.700	2.533
352.800	2.525
352.900	2.547
353.000	2.510
353.100	2.479
353.200	2.461
353.300	2.460
353.400	2.469
353.500	2.484
353.600	2.483
353.700	2.494
353.800	2.492
353.900	2.509
354.000	2.493
354.100	2.476
354.200	2.487
354.300	2.495
354.400	2.518
354.500	2.525
354.600	2.514
354.700	2.508
354.800	2.544
354.900	2.583
355.000	2.581
355.100	2.577
355.200	2.570
355.300	2.552
355.400	2.563
355.500	2.555
355.600	2.519
355.700	2.514
355.800	2.498
355.900	2.510
356.000	2.510
356.100	2.505
356.200	2.503
356.300	2.503
356.400	2.505
356.500	2.509
356.600	2.487
356.700	2.498
356.800	2.509
356.900	2.500
357.000	2.494
357.100	2.489
357.200	2.478
357.300	2.480
357.400	2.474
357.500	2.464
357.600	2.461
357.700	2.453
357.800	2.468
357.900	2.471
358.000	2.470
358.100	2.471
358.200	2.492
358.300	2.499
358.400	2.504
358.500	2.522
358.600	2.486
358.700	2.506
358.800	2.543
358.900	2.509
359.000	2.526
359.100	2.508
359.200	2.504
359.300	2.512
359.400	2.526
359.500	2.538
359.600	2.567
359.700	2.585
359.800	2.556
359.900	2.511
360.000	2.514
360.100	2.551
360.200	2.529
360.300	2.487
360.400	2.485
360.500	2.522
360.600	2.548
360.700	2.525
360.800	2.480
360.900	2.477
361.000	2.505
361.100	2.482
361.200	2.498
361.300	2.507
361.400	2.523
361.500	2.511
361.600	2.515
361.700	2.535
361.800	2.536
361.900	2.484
362.000	2.454
362.100	2.470
362.200	2.456
362.300	2.444
362.400	2.435
362.500	2.422
362.600	2.397
362.700	2.390
362.800	2.414
362.900	2.461
363.000	2.479
363.100	2.471
363.200	2.428
363.300	2.452
363.400	2.485
363.500	2.516
363.600	2.521
363.700	2.512
363.800	2.529
363.900	2.516
364.000	2.495
364.100	2.506
364.200	2.496
364.300	2.520
364.400	2.546
364.500	2.525
364.600	2.476
364.700	2.504
364.800	2.527
364.900	2.547
365.000	2.523
365.100	2.534
365.200	2.597
365.300	2.641
365.400	2.657
365.500	2.649
365.600	2.626
365.700	2.616
365.800	2.644
365.900	2.636
366.000	2.617
366.100	2.606
366.200	2.614
366.300	2.636
366.400	2.660
366.500	2.669
366.600	2.680
366.700	2.695
366.800	2.697
366.900	2.691
367.000	2.664
367.100	2.658
367.200	2.680
367.300	2.714
367.400	2.733
367.500	2.735
367.600	2.713
367.700	2.721
367.800	2.700
367.900	2.697
368.000	2.694
368.100	2.746
368.200	2.752
368.300	2.733
368.400	2.737
368.500	2.735
368.600	2.762
368.700	2.761
368.800	2.770
368.900	2.791
369.000	2.789
369.100	2.782
369.200	2.788
369.300	2.783
369.400	2.763
369.500	2.743
369.600	2.726
369.700	2.692
369.800	2.675
369.900	2.678
370.000	2.679
370.100	2.691
370.200	2.718
370.300	2.724
370.400	2.708
370.500	2.723
370.600	2.734
370.700	2.733
370.800	2.731
370.900	2.720
371.000	2.719
371.100	2.725
371.200	2.738
371.300	2.725
371.400	2.736
371.500	2.720
371.600	2.677
371.700	2.646
371.800	2.631
371.900	2.629
372.000	2.643
372.100	2.631
372.200	2.645
372.300	2.625
372.400	2.605
372.500	2.581
372.600	2.604
372.700	2.593
372.800	2.618
372.900	2.609
373.000	2.616
373.100	2.649
373.200	2.689
373.300	2.688
373.400	2.657
373.500	2.653
373.600	2.693
373.700	2.684
373.800	2.649
373.900	2.631
374.000	2.632
374.100	2.666
374.200	2.691
374.300	2.718
374.400	2.752
374.500	2.747
374.600	2.742
374.700	2.731
374.800	2.733
374.900	2.765
375.000	2.787
375.100	2.739
375.200	2.695
375.300	2.716
375.400	2.719
375.500	2.706
375.600	2.721
375.700	2.740
375.800	2.730
375.900	2.667
376.000	2.664
376.100	2.696
376.200	2.728
376.300	2.727
376.400	2.717
376.500	2.719
376.600	2.730
376.700	2.748
376.800	2.741
376.900	2.737
377.000	2.735
377.100	2.688
377.200	2.653
377.300	2.677
377.400	2.712
377.500	2.707
377.600	2.684
377.700	2.666
377.800	2.660
377.900	2.662
378.000	2.646
378.100	2.673
378.200	2.672
378.300	2.659
378.400	2.633
378.500	2.670
378.600	2.657
378.700	2.647
378.800	2.627
378.900	2.654
379.000	2.653
379.100	2.641
379.200	2.646
379.300	2.628
379.400	2.648
379.500	2.642
379.600	2.638
379.700	2.647
379.800	2.677
379.900	2.688
380.000	2.675
380.100	2.660
380.200	2.681
380.300	2.669
380.400	2.662
380.500	2.683
380.600	2.703
380.700	2.708
380.800	2.696
380.900	2.709
381.000	2.694
381.100	2.709
381.200	2.691
381.300	2.685
381.400	2.661
381.500	2.692
381.600	2.721
381.700	2.718
381.800	2.714
381.900	2.713
382.000	2.704
382.100	2.731
382.200	2.745
382.300	2.739
382.400	2.737
382.500	2.728
382.600	2.757
382.700	2.755
382.800	2.750
382.900	2.780
383.000	2.787
383.100	2.762
383.200	2.740
383.300	2.721
383.400	2.715
383.500	2.720
383.600	2.709
383.700	2.717
383.800	2.686
383.900	2.678
384.000	2.720
384.100	2.720
384.200	2.725
384.300	2.752
384.400	2.779
384.500	2.754
384.600	2.731
384.700	2.738
384.800	2.750
384.900	2.765
385.000	2.769
385.100	2.776
385.200	2.762
385.300	2.726
385.400	2.742
385.500	2.774
385.600	2.754
385.700	2.743
385.800	2.780
385.900	2.819
386.000	2.842
386.100	2.830
386.200	2.772
386.300	2.744
386.400	2.729
386.500	2.734
386.600	2.743
386.700	2.726
386.800	2.704
386.900	2.676
387.000	2.667
387.100	2.670
387.200	2.703
387.300	2.728
387.400	2.713
387.500	2.688
387.600	2.693
387.700	2.692
387.800	2.712
387.900	2.735
388.000	2.750
388.100	2.774
388.200	2.791
388.300	2.783
388.400	2.752
388.500	2.746
388.600	2.732
388.700	2.722
388.800	2.737
388.900	2.734
389.000	2.696
389.100	2.641
389.200	2.628
389.300	2.651
389.400	2.657
389.500	2.698
389.600	2.693
389.700	2.674
389.800	2.675
389.900	2.682
390.000	2.694
390.100	2.694
390.200	2.691
390.300	2.675
390.400	2.688
390.500	2.695
390.600	2.693
390.700	2.686
390.800	2.670
390.900	2.666
391.000	2.678
391.100	2.680
391.200	2.647
391.300	2.647
391.400	2.692
391.500	2.712
391.600	2.714
391.700	2.709
391.800	2.677
391.900	2.674
392.000	2.681
392.100	2.673
392.200	2.676
392.300	2.687
392.400	2.710
392.500	2.739
392.600	2.757
392.700	2.771
392.800	2.770
392.900	2.781
393.000	2.780
393.100	2.782
393.200	2.752
393.300	2.750
393.400	2.724
393.500	2.704
393.600	2.713
393.700	2.751
393.800	2.751
393.900	2.768
394.000	2.776
394.100	2.751
394.200	2.764
394.300	2.763
394.400	2.762
394.500	2.738
394.600	2.707
394.700	2.701
394.800	2.745
394.900	2.805
395.000	2.804
395.100	2.799
395.200	2.823
395.300	2.798
395.400	2.762
395.500	2.747
395.600	2.750
395.700	2.747
395.800	2.772
395.900	2.774
396.000	2.754
396.100	2.753
396.200	2.756
396.300	2.767
396.400	2.788
396.500	2.808
396.600	2.805
396.700	2.818
396.800	2.789
396.900	2.778
397.000	2.829
397.100	2.833
397.200	2.818
397.300	2.808
397.400	2.800
397.500	2.739
397.600	2.770
397.700	2.786
397.800	2.776
397.900	2.769
398.000	2.780
398.100	2.810
398.200	2.827
398.300	2.805
398.400	2.801
398.500	2.793
398.600	2.820
398.700	2.822
398.800	2.808
398.900	2.802
399.000	2.821
399.100	2.819
399.200	2.792
399.300	2.800
399.400	2.821
399.500	2.793
399.600	2.814
399.700	2.832
399.800	2.853
399.900	2.845
400.000	2.827
400.100	2.839
400.200	2.842
400.300	2.821
400.400	2.815
400.500	2.810
400.600	2.783
400.700	2.779
400.800	2.798
400.900	2.792
401.000	2.746
401.100	2.693
401.200	2.705
401.300	2.724
401.400	2.733
401.500	2.753
401.600	2.776
401.700	2.803
401.800	2.792
401.900	2.812
402.000	2.826
402.100	2.825
402.200	2.805
402.300	2.798
402.400	2.790
402.500	2.811
402.600	2.819
402.700	2.825
402.800	2.809
402.900	2.815
403.000	2.794
403.100	2.765
403.200	2.738
403.300	2.742
403.400	2.829
403.500	2.858
403.600	2.820
403.700	2.788
403.800	2.828
403.900	2.835
404.000	2.832
404.100	2.822
404.200	2.828
404.300	2.806
404.400	2.804
404.500	2.814
404.600	2.829
404.700	2.848
404.800	2.851
404.900	2.843
405.000	2.838
405.100	2.845
405.200	2.884
405.300	2.883
405.400	2.851
405.500	2.829
405.600	2.799
405.700	2.796
405.800	2.782
405.900	2.809
406.000	2.827
406.100	2.835
406.200	2.844
406.300	2.853
406.400	2.851
406.500	2.849
406.600	2.845
406.700	2.848
406.800	2.850
406.900	2.845
407.000	2.865
407.100	2.865
407.200	2.877
407.300	2.875
407.400	2.885
407.500	2.882
407.600	2.873
407.700	2.877
407.800	2.859
407.900	2.854
408.000	2.853
408.100	2.853
408.200	2.880
408.300	2.910
408.400	2.908
408.500	2.868
408.600	2.862
408.700	2.848
408.800	2.825
408.900	2.830
409.000	2.875
409.100	2.844
409.200	2.785
409.300	2.780
409.400	2.776
409.500	2.803
409.600	2.820
409.700	2.825
409.800	2.851
409.900	2.829
410.000	2.851
410.100	2.849
410.200	2.840
410.300	2.833
410.400	2.829
410.500	2.811
410.600	2.822
410.700	2.818
410.800	2.800
410.900	2.793
411.000	2.806
411.100	2.790
411.200	2.758
411.300	2.780
411.400	2.822
411.500	2.856
411.600	2.880
411.700	2.861
411.800	2.856
411.900	2.851
412.000	2.863
412.100	2.864
412.200	2.838
412.300	2.835
412.400	2.852
412.500	2.888
412.600	2.878
412.700	2.879
412.800	2.858
412.900	2.811
413.000	2.797
413.100	2.797
413.200	2.805
413.300	2.794
413.400	2.802
413.500	2.813
413.600	2.827
413.700	2.827
413.800	2.853
413.900	2.884
414.000	2.889
414.100	2.875
414.200	2.867
414.300	2.887
414.400	2.889
414.500	2.836
414.600	2.820
414.700	2.816
414.800	2.836
414.900	2.824
415.000	2.826
415.100	2.837
415.200	2.868
415.300	2.873
415.400	2.874
415.500	2.873
415.600	2.902
415.700	2.902
415.800	2.895
415.900	2.893
416.000	2.898
416.100	2.914
416.200	2.947
416.300	2.951
416.400	2.953
416.500	2.950
416.600	2.937
416.700	2.943
416.800	2.981
416.900	2.990
417.000	2.970
417.100	2.938
417.200	2.937
417.300	2.933
417.400	2.928
417.500	2.930
417.600	2.933
417.700	2.946
417.800	2.946
417.900	2.934
418.000	2.916
418.100	2.931
418.200	2.943
418.300	2.936
418.400	2.951
418.500	2.983
418.600	2.965
418.700	2.924
418.800	2.886
418.900	2.899
419.000	2.921
419.100	2.920
419.200	2.938
419.300	2.966
419.400	2.943
419.500	2.884
419.600	2.893
419.700	2.937
419.800	2.944
419.900	2.930
420.000	2.924
420.100	2.936
420.200	2.920
420.300	2.922
420.400	2.923
420.500	2.917
420.600	2.920
420.700	2.918
420.800	2.909
420.900	2.925
421.000	2.938
421.100	2.948
421.200	2.937
421.300	2.933
421.400	2.925
421.500	2.925
421.600	2.921
421.700	2.943
421.800	2.955
421.900	2.957
422.000	2.951
422.100	2.928
422.200	2.913
422.300	2.926
422.400	2.945
422.500	2.955
422.600	2.941
422.700	2.920
422.800	2.895
422.900	2.874
423.000	2.868
423.100	2.876
423.200	2.907
423.300	2.869
423.400	2.871
423.500	2.921
423.600	2.946
423.700	2.918
423.800	2.881
423.900	2.865
424.000	2.895
424.100	2.917
424.200	2.918
424.300	2.906
424.400	2.921
424.500	2.893
424.600	2.867
424.700	2.880
424.800	2.953
424.900	2.971
425.000	2.948
425.100	2.953
425.200	2.960
425.300	2.981
425.400	2.939
425.500	2.947
425.600	2.961
425.700	2.965
425.800	2.991
425.900	3.004
426.000	3.010
426.100	3.012
426.200	2.964
426.300	2.918
426.400	2.929
426.500	2.947
426.600	2.949
426.700	2.946
426.800	2.937
426.900	2.939
427.000	2.951
427.100	2.932
427.200	2.899
427.300	2.895
427.400	2.963
427.500	2.947
427.600	2.950
427.700	2.978
427.800	2.991
427.900	3.000
428.000	2.980
428.100	2.933
428.200	2.933
428.300	2.957
428.400	2.974
428.500	2.992
428.600	3.002
428.700	2.996
428.800	3.014
428.900	2.997
429.000	2.992
429.100	3.011
429.200	2.981
429.300	2.964
429.400	2.948
429.500	2.936
429.600	2.962
429.700	2.997
429.800	3.005
429.900	2.979
430.000	2.967
430.100	2.959
430.200	2.982
430.300	3.009
430.400	2.970
430.500	2.970
430.600	2.954
430.700	2.939
430.800	2.967
430.900	2.996
431.000	3.018
431.100	3.024
431.200	3.011
431.300	3.003
431.400	2.985
431.500	2.981
431.600	3.013
431.700	3.025
431.800	2.966
431.900	2.922
432.000	2.958
432.100	2.942
432.200	2.911
432.300	2.910
432.400	2.923
432.500	2.928
432.600	2.919
432.700	2.923
432.800	2.900
432.900	2.924
433.000	2.935
433.100	2.958
433.200	2.987
433.300	2.956
433.400	2.952
433.500	2.952
433.600	2.932
433.700	2.925
433.800	2.921
433.900	2.925
434.000	2.943
434.100	2.941
434.200	2.946
434.300	2.978
434.400	3.000
434.500	2.975
434.600	2.977
434.700	2.989
434.800	2.984
434.900	2.970
435.000	2.942
435.100	2.920
435.200	2.934
435.300	2.935
435.400	2.929
435.500	2.951
435.600	2.947
435.700	2.921
435.800	2.917
435.900	2.937
436.000	2.917
436.100	2.926
436.200	2.941
436.300	2.949
436.400	2.928
436.500	2.907
436.600	2.889
436.700	2.921
436.800	2.938
436.900	2.927
437.000	2.921
437.100	2.914
437.200	2.895
437.300	2.894
437.400	2.927
437.500	2.931
437.600	2.928
437.700	2.895
437.800	2.870
437.900	2.876
438.000	2.911
438.100	2.908
438.200	2.922
438.300	2.924
438.400	2.921
438.500	2.964
438.600	2.995
438.700	2.980
438.800	2.998
438.900	2.999
439.000	2.979
439.100	2.996
439.200	3.036
439.300	3.022
439.400	2.993
439.500	3.034
439.600	3.037
439.700	2.987
439.800	2.977
439.900	2.985
440.000	2.978
440.100	2.969
440.200	2.958
440.300	2.968
440.400	3.003
440.500	3.024
440.600	3.030
440.700	3.064
440.800	3.067
440.900	3.055
441.000	3.074
441.100	3.079
441.200	3.089
441.300	3.088
441.400	3.113
441.500	3.097
441.600	3.061
441.700	3.060
441.800	3.049
441.900	3.020
442.000	2.991
442.100	2.951
442.200	2.937
442.300	2.936
442.400	2.969
442.500	2.987
442.600	2.993
442.700	2.991
442.800	2.990
442.900	2.986
443.000	3.007
443.100	3.044
443.200	3.043
443.300	3.041
443.400	3.036
443.500	3.037
443.600	3.015
443.700	2.977
443.800	2.967
443.900	2.981
444.000	3.017
444.100	3.011
444.200	2.992
444.300	2.979
444.400	3.004
444.500	3.014
444.600	2.976
444.700	2.955
444.800	2.986
444.900	2.998
445.000	2.996
445.100	3.009
445.200	3.016
445.300	3.042
445.400	3.043
445.500	3.039
445.600	3.013
445.700	3.010
445.800	3.048
445.900	3.049
446.000	3.062
446.100	3.079
446.200	3.080
446.300	3.067
446.400	3.048
446.500	3.048
446.600	3.018
446.700	3.021
446.800	3.054
446.900	3.033
447.000	3.013
447.100	3.014
447.200	3.011
447.300	3.030
447.400	3.062
447.500	3.060
447.600	3.071
447.700	3.049
447.800	3.071
447.900	3.065
448.000	3.071
448.100	3.094
448.200	3.092
448.300	3.074
448.400	3.083
448.500	3.103
448.600	3.076
448.700	3.031
448.800	3.024
448.900	3.057
449.000	3.081
449.100	3.082
449.200	3.050
449.300	3.053
449.400	3.057
449.500	3.063
449.600	3.086
449.700	3.085
449.800	3.083
449.900	3.080
450.000	3.065
450.100	3.043
450.200	3.024
450.300	3.020
450.400	3.034
450.500	3.062
450.600	3.111
450.700	3.127
450.800	3.121
450.900	3.126
451.000	3.157
451.100	3.146
451.200	3.135
451.300	3.125
451.400	3.114
451.500	3.100
451.600	3.098
451.700	3.108
451.800	3.061
451.900	3.027
452.000	3.034
452.100	3.016
452.200	3.027
452.300	3.065
452.400	3.074
452.500	3.062
452.600	3.044
452.700	3.036
452.800	3.033
452.900	3.023
453.000	3.013
453.100	3.017
453.200	3.032
453.300	3.036
453.400	3.049
453.500	3.067
453.600	3.015
453.700	3.001
453.800	3.034
453.900	3.073
454.000	3.067
454.100	3.060
454.200	3.050
454.300	3.032
454.400	3.054
454.500	3.048
454.600	3.035
454.700	3.056
454.800	3.052
454.900	3.052
455.000	3.058
455.100	3.062
455.200	3.053
455.300	3.014
455.400	3.014
455.500	3.000
455.600	3.001
455.700	3.024
455.800	3.038
455.900	3.026
456.000	3.023
456.100	3.005
456.200	3.037
456.300	3.040
456.400	3.041
456.500	3.057
456.600	3.058
456.700	3.046
456.800	3.026
456.900	3.016
457.000	3.067
457.100	3.093
457.200	3.076
457.300	3.026
457.400	3.013
457.500	3.034
457.600	3.053
457.700	3.057
457.800	3.062
457.900	3.053
458.000	3.048
458.100	3.041
458.200	3.042
458.300	3.030
458.400	3.019
458.500	3.019
458.600	3.041
458.700	3.093
458.800	3.102
458.900	3.058
459.000	3.053
459.100	3.040
459.200	3.016
459.300	3.017
459.400	3.026
459.500	3.040
459.600	3.038
459.700	3.055
459.800	3.065
459.900	3.055
460.000	3.070
460.100	3.067
460.200	3.028
460.300	3.026
460.400	3.040
460.500	3.058
460.600	3.063
460.700	3.067
460.800	3.074
460.900	3.061
461.000	3.023
461.100	3.027
461.200	3.062
461.300	3.069
461.400	3.031
461.500	3.024
461.600	3.032
461.700	3.052
461.800	3.037
461.900	3.025
462.000	3.033
462.100	3.053
462.200	3.073
462.300	3.074
462.400	3.050
462.500	3.061
462.600	3.078
462.700	3.082
462.800	3.078
462.900	3.093
463.000	3.095
463.100	3.084
463.200	3.054
463.300	3.051
463.400	3.086
463.500	3.106
463.600	3.103
463.700	3.065
463.800	3.046
463.900	3.077
464.000	3.116
464.100	3.098
464.200	3.075
464.300	3.037
464.400	3.029
464.500	3.030
464.600	3.043
464.700	3.069
464.800	3.064
464.900	3.057
465.000	3.077
465.100	3.085
465.200	3.113
465.300	3.123
465.400	3.129
465.500	3.132
465.600	3.122
465.700	3.133
465.800	3.125
465.900	3.090
466.000	3.084
466.100	3.091
466.200	3.099
466.300	3.101
466.400	3.117
466.500	3.121
466.600	3.120
466.700	3.118
466.800	3.127
466.900	3.121
467.000	3.097
467.100	3.048
467.200	3.006
467.300	3.042
467.400	3.076
467.500	3.061
467.600	3.028
467.700	3.029
467.800	3.083
467.900	3.099
468.000	3.089
468.100	3.059
468.200	3.042
468.300	3.057
468.400	3.093
468.500	3.110
468.600	3.103
468.700	3.111
468.800	3.110
468.900	3.090
469.000	3.085
469.100	3.082
469.200	3.095
469.300	3.119
469.400	3.132
469.500	3.114
469.600	3.139
469.700	3.185
469.800	3.192
469.900	3.183
470.000	3.174
470.100	3.157
470.200	3.166
470.300	3.179
470.400	3.175
470.500	3.165
470.600	3.122
470.700	3.110
470.800	3.132
470.900	3.140
471.000	3.146
471.100	3.144
471.200	3.152
471.300	3.153
471.400	3.124
471.500	3.121
471.600	3.144
471.700	3.112
471.800	3.118
471.900	3.139
472.000	3.138
472.100	3.142
472.200	3.149
472.300	3.121
472.400	3.124
472.500	3.135
472.600	3.138
472.700	3.145
472.800	3.176
472.900	3.166
473.000	3.207
473.100	3.220
473.200	3.188
473.300	3.183
473.400	3.208
473.500	3.207
473.600	3.235
473.700	3.231
473.800	3.222
473.900	3.187
474.000	3.188
474.100	3.185
474.200	3.181
474.300	3.200
474.400	3.210
474.500	3.205
474.600	3.193
474.700	3.165
474.800	3.168
474.900	3.170
475.000	3.160
475.100	3.142
475.200	3.138
475.300	3.154
475.400	3.201
475.500	3.205
475.600	3.204
475.700	3.241
475.800	3.250
475.900	3.212
476.000	3.171
476.100	3.175
476.200	3.198
476.300	3.190
476.400	3.173
476.500	3.153
476.600	3.172
476.700	3.170
476.800	3.173
476.900	3.133
477.000	3.084
477.100	3.113
477.200	3.127
477.300	3.135
477.400	3.140
477.500	3.140
477.600	3.153
477.700	3.168
477.800	3.145
477.900	3.159
478.000	3.141
478.100	3.150
478.200	3.175
478.300	3.225
478.400	3.238
478.500	3.202
478.600	3.203
478.700	3.214
478.800	3.235
478.900	3.225
479.000	3.203
479.100	3.216
479.200	3.192
479.300	3.160
479.400	3.177
479.500	3.177
479.600	3.189
479.700	3.230
479.800	3.266
479.900	3.280
480.000	3.281
480.100	3.283
480.200	3.277
480.300	3.244
480.400	3.211
480.500	3.199
480.600	3.190
480.700	3.227
480.800	3.236
480.900	3.245
481.000	3.250
481.100	3.256
481.200	3.236
481.300	3.202
481.400	3.175
481.500	3.185
481.600	3.196
481.700	3.208
481.800	3.219
481.900	3.217
482.000	3.180
482.100	3.187
482.200	3.188
482.300	3.176
482.400	3.167
482.500	3.182
482.600	3.204
482.700	3.186
482.800	3.208
482.900	3.245
483.000	3.222
483.100	3.220
483.200	3.249
483.300	3.223
483.400	3.201
483.500	3.206
483.600	3.195
483.700	3.203
483.800	3.225
483.900	3.229
484.000	3.241
484.100	3.250
484.200	3.227
484.300	3.186
484.400	3.160
484.500	3.175
484.600	3.187
484.700	3.197
484.800	3.213
484.900	3.242
485.000	3.241
485.100	3.249
485.200	3.280
485.300	3.265
485.400	3.259
485.500	3.311
485.600	3.307
485.700	3.275
485.800	3.273
485.900	3.284
486.000	3.278
486.100	3.257
486.200	3.252
486.300	3.242
486.400	3.244
486.500	3.249
486.600	3.231
486.700	3.246
486.800	3.293
486.900	3.271
487.000	3.265
487.100	3.269
487.200	3.257
487.300	3.236
487.400	3.235
487.500	3.248
487.600	3.217
487.700	3.228
487.800	3.228
487.900	3.189
488.000	3.204
488.100	3.239
488.200	3.279
488.300	3.293
488.400	3.271
488.500	3.290
488.600	3.284
488.700	3.251
488.800	3.231
488.900	3.261
489.000	3.273
489.100	3.259
489.200	3.257
489.300	3.233
489.400	3.239
489.500	3.214
489.600	3.213
489.700	3.266
489.800	3.317
489.900	3.296
490.000	3.267
490.100	3.298
490.200	3.278
490.300	3.318
490.400	3.295
490.500	3.289
490.600	3.305
490.700	3.299
490.800	3.263
490.900	3.210
491.000	3.219
491.100	3.223
491.200	3.226
491.300	3.261
491.400	3.275
491.500	3.294
491.600	3.303
491.700	3.291
491.800	3.288
491.900	3.288
492.000	3.293
492.100	3.321
492.200	3.368
492.300	3.392
492.400	3.387
492.500	3.365
492.600	3.323
492.700	3.301
492.800	3.308
492.900	3.328
493.000	3.333
493.100	3.323
493.200	3.322
493.300	3.335
493.400	3.350
493.500	3.361
493.600	3.341
493.700	3.302
493.800	3.317
493.900	3.345
494.000	3.337
494.100	3.316
494.200	3.269
494.300	3.276
494.400	3.264
494.500	3.270
494.600	3.292
494.700	3.304
494.800	3.333
494.900	3.322
495.000	3.336
495.100	3.315
495.200	3.267
495.300	3.302
495.400	3.346
495.500	3.367
495.600	3.346
495.700	3.341
495.800	3.361
495.900	3.335
496.000	3.313
496.100	3.304
496.200	3.326
496.300	3.354
496.400	3.381
496.500	3.421
496.600	3.429
496.700	3.426
496.800	3.414
496.900	3.413
497.000	3.396
497.100	3.387
497.200	3.413
497.300	3.407
497.400	3.410
497.500	3.417
497.600	3.436
